wavelength / nm,EQE / %
200,0
300,0
320,0
340,5
360,20
380,60
400,85
420,92
440,96
460,97
480,98
500,99
600,99
700,100
800,99
900,0
950,0
1000,0
1050,0
1100,0
1200,0
1250,0
1300,0
1400,0
1600,0
1700,0
1750,0
1770,0
1800,0
1830,0
1900,0
1950,0
2000,0
